##NAMES=Metauranocircite
##RRUFFID=R050575
##IDEAL CHEMISTRY=Ba(U^6+^O_2_)_2_(PO_4_)_2_&#183;8H_2_O
##LOCALITY=Voightland, Saxony, Germany
##OWNER=RRUFF
##SOURCE=University of Arizona Mineral Museum
##DESCRIPTION=Yellow platy crystals with minor intergrown quartz
##DIFFRACTION SAMPLE DESCRIPTION=Single crystal, powder profile is calculated
##STATUS=The identification of this mineral is confirmed by single-crystal X-ray diffraction and chemical analysis.
##URL=rruff.info/R050575
##MEASURED CHEMISTRY=(Ba_0.98_Ca_0.02_)_Σ=1_(U_1.00_O_2_)_2_(P_1.00_O_4_)_2_·6.13H_2_O
##CELL PARAMETERS=a: 7.01(1) b: 17.00(3) c: 7.02(1) alpha: 90 beta: 90.13(4) gamma: 90 volume: 837(3) crystal system: monoclinic
0.000, 0.000
0.010, 0.000
0.020, 0.000
0.030, 0.000
0.040, 0.000
0.050, 0.000
0.060, 0.000
0.070, 0.000
0.080, 0.000
0.090, 0.000
0.100, 0.000
0.110, 0.000
0.120, 0.000
0.130, 0.000
0.140, 0.000
0.150, 0.000
0.160, 0.000
0.170, 0.000
0.180, 0.000
0.190, 0.000
0.200, 0.000
0.210, 0.000
0.220, 0.000
0.230, 0.000
0.240, 0.000
0.250, 0.000
0.260, 0.000
0.270, 0.000
0.280, 0.000
0.290, 0.000
0.300, 0.000
0.310, 0.000
0.320, 0.000
0.330, 0.000
0.340, 0.000
0.350, 0.000
0.360, 0.000
0.370, 0.000
0.380, 0.000
0.390, 0.000
0.400, 0.000
0.410, 0.000
0.420, 0.000
0.430, 0.000
0.440, 0.000
0.450, 0.000
0.460, 0.000
0.470, 0.000
0.480, 0.000
0.490, 0.000
0.500, 0.000
0.510, 0.000
0.520, 0.000
0.530, 0.000
0.540, 0.000
0.550, 0.000
0.560, 0.000
0.570, 0.000
0.580, 0.000
0.590, 0.000
0.600, 0.000
0.610, 0.000
0.620, 0.000
0.630, 0.000
0.640, 0.000
0.650, 0.000
0.660, 0.000
0.670, 0.000
0.680, 0.000
0.690, 0.000
0.700, 0.000
0.710, 0.000
0.720, 0.000
0.730, 0.000
0.740, 0.000
0.750, 0.000
0.760, 0.000
0.770, 0.000
0.780, 0.000
0.790, 0.000
0.800, 0.000
0.810, 0.000
0.820, 0.000
0.830, 0.000
0.840, 0.000
0.850, 0.000
0.860, 0.000
0.870, 0.000
0.880, 0.000
0.890, 0.000
0.900, 0.000
0.910, 0.000
0.920, 0.000
0.930, 0.000
0.940, 0.000
0.950, 0.000
0.960, 0.000
0.970, 0.000
0.980, 0.000
0.990, 0.000
1.000, 0.000
1.010, 0.000
1.020, 0.000
1.030, 0.000
1.040, 0.000
1.050, 0.000
1.060, 0.000
1.070, 0.000
1.080, 0.000
1.090, 0.000
1.100, 0.000
1.110, 0.000
1.120, 0.000
1.130, 0.000
1.140, 0.000
1.150, 0.000
1.160, 0.000
1.170, 0.000
1.180, 0.000
1.190, 0.000
1.200, 0.000
1.210, 0.000
1.220, 0.000
1.230, 0.000
1.240, 0.000
1.250, 0.000
1.260, 0.000
1.270, 0.000
1.280, 0.000
1.290, 0.000
1.300, 0.000
1.310, 0.000
1.320, 0.000
1.330, 0.000
1.340, 0.000
1.350, 0.000
1.360, 0.000
1.370, 0.000
1.380, 0.000
1.390, 0.000
1.400, 0.000
1.410, 0.000
1.420, 0.000
1.430, 0.000
1.440, 0.000
1.450, 0.000
1.460, 0.000
1.470, 0.000
1.480, 0.000
1.490, 0.000
1.500, 0.000
1.510, 0.000
1.520, 0.000
1.530, 0.000
1.540, 0.000
1.550, 0.000
1.560, 0.000
1.570, 0.000
1.580, 0.000
1.590, 0.000
1.600, 0.000
1.610, 0.000
1.620, 0.000
1.630, 0.000
1.640, 0.000
1.650, 0.000
1.660, 0.000
1.670, 0.000
1.680, 0.000
1.690, 0.000
1.700, 0.000
1.710, 0.000
1.720, 0.000
1.730, 0.000
1.740, 0.000
1.750, 0.000
1.760, 0.000
1.770, 0.000
1.780, 0.000
1.790, 0.000
1.800, 0.000
1.810, 0.000
1.820, 0.000
1.830, 0.000
1.840, 0.000
1.850, 0.000
1.860, 0.000
1.870, 0.000
1.880, 0.000
1.890, 0.000
1.900, 0.000
1.910, 0.000
1.920, 0.000
1.930, 0.000
1.940, 0.000
1.950, 0.000
1.960, 0.000
1.970, 0.000
1.980, 0.000
1.990, 0.000
2.000, 0.000
2.010, 0.000
2.020, 0.000
2.030, 0.000
2.040, 0.000
2.050, 0.000
2.060, 0.000
2.070, 0.000
2.080, 0.000
2.090, 0.000
2.100, 0.000
2.110, 0.000
2.120, 0.000
2.130, 0.000
2.140, 0.000
2.150, 0.000
2.160, 0.000
2.170, 0.000
2.180, 0.000
2.190, 0.000
2.200, 0.000
2.210, 0.000
2.220, 0.000
2.230, 0.000
2.240, 0.000
2.250, 0.000
2.260, 0.000
2.270, 0.000
2.280, 0.000
2.290, 0.000
2.300, 0.000
2.310, 0.000
2.320, 0.000
2.330, 0.000
2.340, 0.000
2.350, 0.000
2.360, 0.000
2.370, 0.000
2.380, 0.000
2.390, 0.000
2.400, 0.000
2.410, 0.000
2.420, 0.000
2.430, 0.000
2.440, 0.000
2.450, 0.000
2.460, 0.000
2.470, 0.000
2.480, 0.000
2.490, 0.000
2.500, 0.000
2.510, 0.000
2.520, 0.000
2.530, 0.000
2.540, 0.000
2.550, 0.000
2.560, 0.000
2.570, 0.000
2.580, 0.000
2.590, 0.000
2.600, 0.000
2.610, 0.000
2.620, 0.000
2.630, 0.000
2.640, 0.000
2.650, 0.000
2.660, 0.000
2.670, 0.000
2.680, 0.000
2.690, 0.000
2.700, 0.000
2.710, 0.000
2.720, 0.000
2.730, 0.000
2.740, 0.000
2.750, 0.000
2.760, 0.000
2.770, 0.000
2.780, 0.000
2.790, 0.000
2.800, 0.000
2.810, 0.000
2.820, 0.000
2.830, 0.000
2.840, 0.000
2.850, 0.000
2.860, 0.000
2.870, 0.000
2.880, 0.000
2.890, 0.000
2.900, 0.000
2.910, 0.000
2.920, 0.000
2.930, 0.000
2.940, 0.000
2.950, 0.000
2.960, 0.000
2.970, 0.000
2.980, 0.000
2.990, 0.000
3.000, 0.000
3.010, 0.000
3.020, 0.000
3.030, 0.000
3.040, 0.000
3.050, 0.000
3.060, 0.000
3.070, 0.000
3.080, 0.000
3.090, 0.000
3.100, 0.000
3.110, 0.000
3.120, 0.000
3.130, 0.000
3.140, 0.000
3.150, 0.000
3.160, 0.000
3.170, 0.000
3.180, 0.000
3.190, 0.000
3.200, 0.000
3.210, 0.000
3.220, 0.000
3.230, 0.000
3.240, 0.000
3.250, 0.000
3.260, 0.000
3.270, 0.000
3.280, 0.000
3.290, 0.000
3.300, 0.000
3.310, 0.000
3.320, 0.000
3.330, 0.000
3.340, 0.000
3.350, 0.000
3.360, 0.000
3.370, 0.000
3.380, 0.000
3.390, 0.000
3.400, 0.000
3.410, 0.000
3.420, 0.000
3.430, 0.000
3.440, 0.000
3.450, 0.000
3.460, 0.000
3.470, 0.000
3.480, 0.000
3.490, 0.000
3.500, 0.000
3.510, 0.000
3.520, 0.000
3.530, 0.000
3.540, 0.000
3.550, 0.000
3.560, 0.000
3.570, 0.000
3.580, 0.000
3.590, 0.000
3.600, 0.000
3.610, 0.000
3.620, 0.000
3.630, 0.000
3.640, 0.000
3.650, 0.000
3.660, 0.000
3.670, 0.000
3.680, 0.000
3.690, 0.000
3.700, 0.000
3.710, 0.000
3.720, 0.000
3.730, 0.000
3.740, 0.000
3.750, 0.000
3.760, 0.000
3.770, 0.000
3.780, 0.000
3.790, 0.000
3.800, 0.000
3.810, 0.000
3.820, 0.000
3.830, 0.000
3.840, 0.000
3.850, 0.000
3.860, 0.000
3.870, 0.000
3.880, 0.000
3.890, 0.000
3.900, 0.000
3.910, 0.000
3.920, 0.000
3.930, 0.000
3.940, 0.000
3.950, 0.000
3.960, 0.000
3.970, 0.000
3.980, 0.000
3.990, 0.000
4.000, 0.000
4.010, 0.000
4.020, 0.000
4.030, 0.000
4.040, 0.000
4.050, 0.000
4.060, 0.000
4.070, 0.000
4.080, 0.000
4.090, 0.000
4.100, 0.000
4.110, 0.000
4.120, 0.000
4.130, 0.000
4.140, 0.000
4.150, 0.000
4.160, 0.000
4.170, 0.000
4.180, 0.000
4.190, 0.000
4.200, 0.000
4.210, 0.000
4.220, 0.000
4.230, 0.000
4.240, 0.000
4.250, 0.000
4.260, 0.000
4.270, 0.000
4.280, 0.000
4.290, 0.000
4.300, 0.000
4.310, 0.000
4.320, 0.000
4.330, 0.000
4.340, 0.000
4.350, 0.000
4.360, 0.000
4.370, 0.000
4.380, 0.000
4.390, 0.000
4.400, 0.000
4.410, 0.000
4.420, 0.000
4.430, 0.000
4.440, 0.000
4.450, 0.000
4.460, 0.000
4.470, 0.000
4.480, 0.000
4.490, 0.000
4.500, 0.000
4.510, 0.000
4.520, 0.000
4.530, 0.000
4.540, 0.000
4.550, 0.000
4.560, 0.000
4.570, 0.000
4.580, 0.000
4.590, 0.000
4.600, 0.000
4.610, 0.000
4.620, 0.000
4.630, 0.000
4.640, 0.000
4.650, 0.000
4.660, 0.000
4.670, 0.000
4.680, 0.000
4.690, 0.000
4.700, 0.000
4.710, 0.000
4.720, 0.000
4.730, 0.000
4.740, 0.000
4.750, 0.000
4.760, 0.000
4.770, 0.000
4.780, 0.000
4.790, 0.000
4.800, 0.000
4.810, 0.000
4.820, 0.000
4.830, 0.000
4.840, 0.000
4.850, 0.000
4.860, 0.000
4.870, 0.000
4.880, 0.000
4.890, 0.000
4.900, 0.000
4.910, 0.000
4.920, 0.000
4.930, 0.000
4.940, 0.000
4.950, 0.000
4.960, 0.000
4.970, 0.000
4.980, 0.000
4.990, 0.000
5.000, 0.000
5.010, 0.000
5.020, 0.000
5.030, 0.000
5.040, 0.000
5.050, 0.000
5.060, 0.000
5.070, 0.000
5.080, 0.000
5.090, 0.000
5.100, 0.000
5.110, 0.000
5.120, 0.000
5.130, 0.000
5.140, 0.000
5.150, 0.000
5.160, 0.000
5.170, 0.000
5.180, 0.000
5.190, 0.000
5.200, 0.000
5.210, 0.000
5.220, 0.000
5.230, 0.000
5.240, 0.000
5.250, 0.000
5.260, 0.000
5.270, 0.000
5.280, 0.000
5.290, 0.000
5.300, 0.000
5.310, 0.000
5.320, 0.000
5.330, 0.000
5.340, 0.000
5.350, 0.000
5.360, 0.000
5.370, 0.000
5.380, 0.000
5.390, 0.000
5.400, 0.000
5.410, 0.000
5.420, 0.000
5.430, 0.000
5.440, 0.000
5.450, 0.000
5.460, 0.000
5.470, 0.000
5.480, 0.000
5.490, 0.000
5.500, 0.000
5.510, 0.000
5.520, 0.000
5.530, 0.000
5.540, 0.000
5.550, 0.000
5.560, 0.000
5.570, 0.000
5.580, 0.000
5.590, 0.000
5.600, 0.000
5.610, 0.000
5.620, 0.000
5.630, 0.000
5.640, 0.000
5.650, 0.000
5.660, 0.000
5.670, 0.000
5.680, 0.000
5.690, 0.000
5.700, 0.000
5.710, 0.000
5.720, 0.000
5.730, 0.000
5.740, 0.000
5.750, 0.000
5.760, 0.000
5.770, 0.000
5.780, 0.000
5.790, 0.000
5.800, 0.000
5.810, 0.000
5.820, 0.000
5.830, 0.000
5.840, 0.000
5.850, 0.000
5.860, 0.000
5.870, 0.000
5.880, 0.000
5.890, 0.000
5.900, 0.000
5.910, 0.000
5.920, 0.000
5.930, 0.000
5.940, 0.000
5.950, 0.000
5.960, 0.000
5.970, 0.000
5.980, 0.000
5.990, 0.000
6.000, 0.000
6.010, 0.000
6.020, 0.000
6.030, 0.000
6.040, 0.000
6.050, 0.000
6.060, 0.000
6.070, 0.000
6.080, 0.000
6.090, 0.000
6.100, 0.000
6.110, 0.000
6.120, 0.000
6.130, 0.000
6.140, 0.000
6.150, 0.000
6.160, 0.000
6.170, 0.000
6.180, 0.000
6.190, 0.000
6.200, 0.000
6.210, 0.000
6.220, 0.000
6.230, 0.000
6.240, 0.000
6.250, 0.000
6.260, 0.000
6.270, 0.000
6.280, 0.000
6.290, 0.000
6.300, 0.000
6.310, 0.000
6.320, 0.000
6.330, 0.000
6.340, 0.000
6.350, 0.000
6.360, 0.000
6.370, 0.000
6.380, 0.000
6.390, 0.000
6.400, 0.000
6.410, 0.000
6.420, 0.000
6.430, 0.000
6.440, 0.000
6.450, 0.000
6.460, 0.000
6.470, 0.000
6.480, 0.000
6.490, 0.000
6.500, 0.000
6.510, 0.000
6.520, 0.000
6.530, 0.000
6.540, 0.000
6.550, 0.000
6.560, 0.000
6.570, 0.000
6.580, 0.000
6.590, 0.000
6.600, 0.000
6.610, 0.000
6.620, 0.000
6.630, 0.000
6.640, 0.000
6.650, 0.000
6.660, 0.000
6.670, 0.000
6.680, 0.000
6.690, 0.000
6.700, 0.000
6.710, 0.000
6.720, 0.000
6.730, 0.000
6.740, 0.000
6.750, 0.000
6.760, 0.000
6.770, 0.000
6.780, 0.000
6.790, 0.000
6.800, 0.000
6.810, 0.000
6.820, 0.000
6.830, 0.000
6.840, 0.000
6.850, 0.000
6.860, 0.000
6.870, 0.000
6.880, 0.000
6.890, 0.000
6.900, 0.000
6.910, 0.000
6.920, 0.000
6.930, 0.000
6.940, 0.000
6.950, 0.000
6.960, 0.000
6.970, 0.000
6.980, 0.000
6.990, 0.000
7.000, 0.000
7.010, 0.000
7.020, 0.000
7.030, 0.000
7.040, 0.000
7.050, 0.000
7.060, 0.000
7.070, 0.000
7.080, 0.000
7.090, 0.000
7.100, 0.000
7.110, 0.000
7.120, 0.000
7.130, 0.000
7.140, 0.000
7.150, 0.000
7.160, 0.000
7.170, 0.000
7.180, 0.000
7.190, 0.000
7.200, 0.000
7.210, 0.000
7.220, 0.000
7.230, 0.000
7.240, 0.000
7.250, 0.000
7.260, 0.000
7.270, 0.000
7.280, 0.000
7.290, 0.000
7.300, 0.000
7.310, 0.000
7.320, 0.000
7.330, 0.000
7.340, 0.000
7.350, 0.000
7.360, 0.000
7.370, 0.000
7.380, 0.000
7.390, 0.000
7.400, 0.000
7.410, 0.000
7.420, 0.000
7.430, 0.000
7.440, 0.000
7.450, 0.000
7.460, 0.000
7.470, 0.000
7.480, 0.000
7.490, 0.000
7.500, 0.000
7.510, 0.000
7.520, 0.000
7.530, 0.000
7.540, 0.000
7.550, 0.000
7.560, 0.000
7.570, 0.000
7.580, 0.000
7.590, 0.000
7.600, 0.000
7.610, 0.000
7.620, 0.000
7.630, 0.000
7.640, 0.000
7.650, 0.000
7.660, 0.000
7.670, 0.000
7.680, 0.000
7.690, 0.000
7.700, 0.000
7.710, 0.000
7.720, 0.000
7.730, 0.000
7.740, 0.000
7.750, 0.000
7.760, 0.000
7.770, 0.000
7.780, 0.000
7.790, 0.000
7.800, 0.000
7.810, 0.000
7.820, 0.000
7.830, 0.000
7.840, 0.000
7.850, 0.000
7.860, 0.000
7.870, 0.000
7.880, 0.000
7.890, 0.000
7.900, 0.000
7.910, 0.000
7.920, 0.000
7.930, 0.000
7.940, 0.000
7.950, 0.000
7.960, 0.000
7.970, 0.000
7.980, 0.000
7.990, 0.000
8.000, 0.000
8.010, 0.000
8.020, 0.000
8.030, 0.000
8.040, 0.000
8.050, 0.000
8.060, 0.000
8.070, 0.000
8.080, 0.000
8.090, 0.000
8.100, 0.000
8.110, 0.000
8.120, 0.000
8.130, 0.000
8.140, 0.000
8.150, 0.000
8.160, 0.000
8.170, 0.000
8.180, 0.000
8.190, 0.000
8.200, 0.000
8.210, 0.000
8.220, 0.000
8.230, 0.000
8.240, 0.000
8.250, 0.000
8.260, 0.000
8.270, 0.000
8.280, 0.000
8.290, 0.000
8.300, 0.000
8.310, 0.000
8.320, 0.000
8.330, 0.000
8.340, 0.000
8.350, 0.000
8.360, 0.000
8.370, 0.000
8.380, 0.000
8.390, 0.000
8.400, 0.000
8.410, 0.000
8.420, 0.000
8.430, 0.000
8.440, 0.000
8.450, 0.000
8.460, 0.000
8.470, 0.000
8.480, 0.000
8.490, 0.000
8.500, 0.000
8.510, 0.000
8.520, 0.000
8.530, 0.000
8.540, 0.000
8.550, 0.000
8.560, 0.000
8.570, 0.000
8.580, 0.000
8.590, 0.000
8.600, 0.000
8.610, 0.000
8.620, 0.000
8.630, 0.000
8.640, 0.000
8.650, 0.000
8.660, 0.000
8.670, 0.000
8.680, 0.000
8.690, 0.000
8.700, 0.000
8.710, 0.000
8.720, 0.000
8.730, 0.000
8.740, 0.000
8.750, 0.000
8.760, 0.000
8.770, 0.000
8.780, 0.000
8.790, 0.000
8.800, 0.000
8.810, 0.000
8.820, 0.000
8.830, 0.000
8.840, 0.000
8.850, 0.000
8.860, 0.000
8.870, 0.000
8.880, 0.000
8.890, 0.000
8.900, 0.000
8.910, 0.000
8.920, 0.000
8.930, 0.000
8.940, 0.000
8.950, 0.000
8.960, 0.000
8.970, 0.000
8.980, 0.000
8.990, 0.000
9.000, 0.000
9.010, 0.000
9.020, 0.000
9.030, 0.000
9.040, 0.000
9.050, 0.000
9.060, 0.000
9.070, 0.000
9.080, 0.000
9.090, 0.000
9.100, 0.000
9.110, 0.000
9.120, 0.000
9.130, 0.000
9.140, 0.000
9.150, 0.000
9.160, 0.000
9.170, 0.000
9.180, 0.000
9.190, 0.000
9.200, 0.000
9.210, 0.000
9.220, 0.000
9.230, 0.000
9.240, 0.000
9.250, 0.000
9.260, 0.000
9.270, 0.000
9.280, 0.000
9.290, 0.000
9.300, 0.000
9.310, 0.000
9.320, 0.000
9.330, 0.000
9.340, 0.000
9.350, 0.000
9.360, 0.000
9.370, 0.000
9.380, 0.000
9.390, 0.000
9.400, 0.000
9.410, 0.000
9.420, 0.000
9.430, 0.000
9.440, 0.000
9.450, 0.000
9.460, 0.000
9.470, 0.000
9.480, 0.000
9.490, 0.000
9.500, 0.000
9.510, 0.000
9.520, 0.000
9.530, 0.000
9.540, 0.000
9.550, 0.000
9.560, 0.000
9.570, 0.000
9.580, 0.000
9.590, 0.000
9.600, 0.000
9.610, 0.000
9.620, 0.000
9.630, 0.000
9.640, 0.000
9.650, 0.000
9.660, 0.000
9.670, 0.000
9.680, 0.000
9.690, 0.000
9.700, 0.000
9.710, 0.000
9.720, 0.000
9.730, 0.000
9.740, 0.000
9.750, 0.000
9.760, 0.000
9.770, 0.000
9.780, 0.000
9.790, 0.000
9.800, 0.000
9.810, 0.000
9.820, 0.000
9.830, 0.000
9.840, 0.000
9.850, 0.000
9.860, 0.000
9.870, 0.000
9.880, 0.000
9.890, 0.000
9.900, 0.000
9.910, 0.000
9.920, 0.000
9.930, 0.000
9.940, 0.000
9.950, 0.000
9.960, 0.000
9.970, 0.000
9.980, 0.000
9.990, 0.000
10.000, 0.000
10.010, 0.000
10.020, 0.000
10.030, 0.000
10.040, 0.000
10.050, 0.000
10.060, 0.000
10.070, 0.000
10.080, 0.000
10.090, 0.000
10.100, 0.000
10.110, 0.000
10.120, 0.000
10.130, 0.000
10.140, 0.000
10.150, 0.000
10.160, 0.000
10.170, 0.000
10.180, 0.000
10.190, 0.000
10.200, 0.000
10.210, 0.000
10.220, 0.000
10.230, 0.000
10.240, 0.000
10.250, 0.000
10.260, 0.000
10.270, 0.001
10.280, 0.004
10.290, 0.021
10.300, 0.089
10.310, 0.328
10.320, 1.050
10.330, 2.934
10.340, 7.161
10.350, 15.287
10.360, 28.594
10.370, 46.969
10.380, 67.960
10.390, 86.936
10.400, 98.737
10.410, 100.000
10.420, 90.675
10.430, 73.823
10.440, 54.028
10.450, 35.514
10.460, 20.911
10.470, 10.988
10.480, 5.130
10.490, 2.119
10.500, 0.771
10.510, 0.247
10.520, 0.069
10.530, 0.017
10.540, 0.004
10.550, 0.001
10.560, 0.000
10.570, 0.000
10.580, 0.000
10.590, 0.000
10.600, 0.000
10.610, 0.000
10.620, 0.000
10.630, 0.000
10.640, 0.000
10.650, 0.000
10.660, 0.000
10.670, 0.000
10.680, 0.000
10.690, 0.000
10.700, 0.000
10.710, 0.000
10.720, 0.000
10.730, 0.000
10.740, 0.000
10.750, 0.000
10.760, 0.000
10.770, 0.000
10.780, 0.000
10.790, 0.000
10.800, 0.000
10.810, 0.000
10.820, 0.000
10.830, 0.000
10.840, 0.000
10.850, 0.000
10.860, 0.000
10.870, 0.000
10.880, 0.000
10.890, 0.000
10.900, 0.000
10.910, 0.000
10.920, 0.000
10.930, 0.000
10.940, 0.000
10.950, 0.000
10.960, 0.000
10.970, 0.000
10.980, 0.000
10.990, 0.000
11.000, 0.000
11.010, 0.000
11.020, 0.000
11.030, 0.000
11.040, 0.000
11.050, 0.000
11.060, 0.000
11.070, 0.000
11.080, 0.000
11.090, 0.000
11.100, 0.000
11.110, 0.000
11.120, 0.000
11.130, 0.000
11.140, 0.000
11.150, 0.000
11.160, 0.000
11.170, 0.000
11.180, 0.000
11.190, 0.000
11.200, 0.000
11.210, 0.000
11.220, 0.000
11.230, 0.000
11.240, 0.000
11.250, 0.000
11.260, 0.000
11.270, 0.000
11.280, 0.000
11.290, 0.000
11.300, 0.000
11.310, 0.000
11.320, 0.000
11.330, 0.000
11.340, 0.000
11.350, 0.000
11.360, 0.000
11.370, 0.000
11.380, 0.000
11.390, 0.000
11.400, 0.000
11.410, 0.000
11.420, 0.000
11.430, 0.000
11.440, 0.000
11.450, 0.000
11.460, 0.000
11.470, 0.000
11.480, 0.000
11.490, 0.000
11.500, 0.000
11.510, 0.000
11.520, 0.000
11.530, 0.000
11.540, 0.000
11.550, 0.000
11.560, 0.000
11.570, 0.000
11.580, 0.000
11.590, 0.000
11.600, 0.000
11.610, 0.000
11.620, 0.000
11.630, 0.000
11.640, 0.000
11.650, 0.000
11.660, 0.000
11.670, 0.000
11.680, 0.000
11.690, 0.000
11.700, 0.000
11.710, 0.000
11.720, 0.000
11.730, 0.000
11.740, 0.000
11.750, 0.000
11.760, 0.000
11.770, 0.000
11.780, 0.000
11.790, 0.000
11.800, 0.000
11.810, 0.000
11.820, 0.000
11.830, 0.000
11.840, 0.000
11.850, 0.000
11.860, 0.000
11.870, 0.000
11.880, 0.000
11.890, 0.000
11.900, 0.000
11.910, 0.000
11.920, 0.000
11.930, 0.000
11.940, 0.000
11.950, 0.000
11.960, 0.000
11.970, 0.000
11.980, 0.000
11.990, 0.000
12.000, 0.000
12.010, 0.000
12.020, 0.000
12.030, 0.000
12.040, 0.000
12.050, 0.000
12.060, 0.000
12.070, 0.000
12.080, 0.000
12.090, 0.000
12.100, 0.000
12.110, 0.000
12.120, 0.000
12.130, 0.000
12.140, 0.000
12.150, 0.000
12.160, 0.000
12.170, 0.000
12.180, 0.000
12.190, 0.000
12.200, 0.000
12.210, 0.000
12.220, 0.000
12.230, 0.000
12.240, 0.000
12.250, 0.000
12.260, 0.000
12.270, 0.000
12.280, 0.000
12.290, 0.000
12.300, 0.000
12.310, 0.000
12.320, 0.000
12.330, 0.000
12.340, 0.000
12.350, 0.000
12.360, 0.000
12.370, 0.000
12.380, 0.000
12.390, 0.000
12.400, 0.000
12.410, 0.000
12.420, 0.000
12.430, 0.000
12.440, 0.000
12.450, 0.000
12.460, 0.000
12.470, 0.000
12.480, 0.000
12.490, 0.001
12.500, 0.002
12.510, 0.009
12.520, 0.029
12.530, 0.084
12.540, 0.218
12.550, 0.500
12.560, 1.023
12.570, 1.864
12.580, 3.033
12.590, 4.417
12.600, 5.773
12.610, 6.795
12.620, 7.236
12.630, 7.006
12.640, 6.195
12.650, 5.018
12.660, 3.724
12.670, 2.526
12.680, 1.557
12.690, 0.866
12.700, 0.432
12.710, 0.192
12.720, 0.076
12.730, 0.026
12.740, 0.008
12.750, 0.002
12.760, 0.001
12.770, 0.000
12.780, 0.000
12.790, 0.000
12.800, 0.000
12.810, 0.000
12.820, 0.000
12.830, 0.000
12.840, 0.000
12.850, 0.000
12.860, 0.000
12.870, 0.000
12.880, 0.000
12.890, 0.000
12.900, 0.000
12.910, 0.000
12.920, 0.000
12.930, 0.000
12.940, 0.000
12.950, 0.000
12.960, 0.000
12.970, 0.000
12.980, 0.000
12.990, 0.000
13.000, 0.000
13.010, 0.000
13.020, 0.000
13.030, 0.000
13.040, 0.000
13.050, 0.000
13.060, 0.000
13.070, 0.000
13.080, 0.000
13.090, 0.000
13.100, 0.000
13.110, 0.000
13.120, 0.000
13.130, 0.000
13.140, 0.000
13.150, 0.000
13.160, 0.000
13.170, 0.000
13.180, 0.000
13.190, 0.000
13.200, 0.000
13.210, 0.000
13.220, 0.000
13.230, 0.000
13.240, 0.000
13.250, 0.000
13.260, 0.000
13.270, 0.000
13.280, 0.000
13.290, 0.000
13.300, 0.000
13.310, 0.000
13.320, 0.000
13.330, 0.000
13.340, 0.000
13.350, 0.000
13.360, 0.000
13.370, 0.000
13.380, 0.000
13.390, 0.000
13.400, 0.000
13.410, 0.000
13.420, 0.000
13.430, 0.000
13.440, 0.000
13.450, 0.000
13.460, 0.000
13.470, 0.000
13.480, 0.000
13.490, 0.000
13.500, 0.000
13.510, 0.000
